File: notebook/K309/CaF2 std.msa
#FORMAT      : EMSA/MAS Spectral Data File
#VERSION     : 1.0
#TITLE       : Bruker AXS spectrum CaF2
#DATE        : 29-JUL-2008
#TIME        : 10:19
#OWNER       : Bruker AXS
#NPOINTS     : 4096
#NCOLUMNS    : 1
#XUNITS      : eV
#YUNITS      : counts
#DATATYPE    : Y
#XPERCHAN    : 5.00409
#OFFSET      : -477.824
#BEAMKV      : 15
#SIGNALTYPE  : EDS
#ELEVANGLE   : 40
#AZIMANGLE   : 180
#LIVETIME    : 59.358
#REALTIME    : 62.941
#PROBECUR    : 2.5
#TDEADLYR    : 0.00001
#TACTLYR     : 0.045
#TALWIND     : 0.003
#CHOFFSET    : 0.0
#XLABEL      : Energy (eV)
#YLABEL      : Counts
#EDSDET      : SDDUTW
##D2STDCMP   : CaF2,(F:48.6667),(Ca:51.3333),5.0
##DET_HASH   : 787abefa-8318-6950-113a-0b12cd5d2e3f
##CALIB_HASH : 45cbf5b2-c271-a5d0-4379-a0c92e937fd3
#SPECTRUM    :
0,
0,
0,
0,
0,
0,
137,
66602,
14,
92,
322,
1276,
370,
153,
244,
390,
7880,
6166,
246,
286,
337,
381,
436,
438,
504,
490,
515,
542,
507,
489,
514,
504,
518,
509,
427,
482,
427,
440,
406,
399,
414,
385,
381,
400,
359,
351,
365,
325,
363,
315,
334,
343,
308,
292,
299,
266,
290,
373,
1157,
13465,
17587,
1783,
318,
725,
2634,
1406,
248,
168,
179,
185,
158,
159,
155,
174,
159,
125,
166,
146,
138,
127,
123,
127,
121,
128,
133,
102,
115,
123,
105,
98,
108,
125,
80,
107,
91,
88,
92,
76,
92,
100,
99,
86,
82,
89,
74,
75,
81,
69,
63,
71,
82,
58,
67,
74,
68,
72,
63,
62,
58,
60,
59,
48,
58,
62,
59,
66,
54,
49,
47,
54,
41,
46,
36,
43,
49,
50,
38,
38,
37,
38,
42,
47,
33,
37,
34,
39,
23,
34,
35,
21,
31,
29,
35,
27,
20,
30,
33,
21,
22,
32,
26,
21,
15,
19,
20,
21,
15,
13,
15,
18,
19,
20,
24,
13,
11,
17,
16,
17,
5,
15,
11,
17,
11,
12,
6,
15,
13,
9,
5,
8,
8,
9,
12,
4,
6,
8,
10,
5,
12,
6,
7,
5,
5,
4,
5,
6,
0,
3,
4,
7,
1,
1,
2,
3,
1,
0,
0,
2,
0,
0,
0,
0,
0,
1,
0,
0,
0,
0,
0,
0,
0,
0,
0,
0,
0,
0,
0,
0,
0,
0,
0,
0,
0,
0,
0,
0,
0,
0,
0,
0,
0,
0,
0,
0,
0,
0,
0,
0,
0,
0,
0,
0,
0,
0,
0,
0,
0,
0,
0,
0,
0,
0,
0,
0,
0,
0,
0,
0,
0,
0,
0,
0,
0,
0,
0,
0,
0,
0,
0,
0,
0,
0,
0,
0,
#ENDOFDATA   :