File: notebook/K309/Fe std.msa
#FORMAT      : EMSA/MAS Spectral Data File
#VERSION     : 1.0
#TITLE       : Bruker AXS spectrum Fe
#DATE        : 29-JUL-2008
#TIME        : 10:20
#OWNER       : Bruker AXS
#NPOINTS     : 4096
#NCOLUMNS    : 1
#XUNITS      : eV
#YUNITS      : counts
#DATATYPE    : Y
#XPERCHAN    : 5.00409
#OFFSET      : -477.824
#BEAMKV      : 15
#SIGNALTYPE  : EDS
#ELEVANGLE   : 40
#AZIMANGLE   : 180
#LIVETIME    : 59.355
#REALTIME    : 63.325
#PROBECUR    : 2.5
#TDEADLYR    : 0.00001
#TACTLYR     : 0.045
#TALWIND     : 0.003
#CHOFFSET    : 0.0
#XLABEL      : Energy (eV)
#YLABEL      : Counts
#EDSDET      : SDDUTW
##D2STDCMP   : Fe,(Fe:100.0),7.87
##DET_HASH   : 787abefa-8318-6950-113a-0b12cd5d2e3f
##CALIB_HASH : 45cbf5b2-c271-a5d0-4379-a0c92e937fd3
#SPECTRUM    :
0,
0,
0,
0,
0,
0,
202,
76454,
27,
132,
270,
411,
383,
528,
1069,
2753,
6341,
19766,
599,
327,
347,
393,
463,
478,
511,
521,
540,
600,
588,
624,
612,
612,
662,
638,
645,
613,
626,
603,
582,
645,
609,
580,
580,
602,
556,
572,
499,
548,
553,
498,
480,
501,
500,
449,
476,
432,
421,
446,
418,
432,
373,
401,
394,
388,
341,
316,
358,
322,
336,
348,
291,
271,
313,
303,
295,
291,
313,
265,
256,
279,
275,
214,
237,
265,
250,
267,
232,
236,
216,
225,
205,
252,
217,
183,
219,
234,
468,
3879,
12103,
7727,
1211,
226,
187,
182,
198,
202,
458,
1318,
1527,
483,
152,
126,
135,
114,
107,
116,
110,
103,
123,
98,
93,
108,
110,
93,
124,
98,
104,
73,
82,
78,
67,
93,
91,
74,
80,
79,
74,
67,
69,
71,
66,
73,
70,
77,
75,
78,
63,
63,
75,
83,
70,
66,
62,
64,
46,
59,
61,
46,
66,
47,
55,
51,
37,
46,
42,
46,
41,
41,
40,
25,
43,
29,
23,
20,
21,
31,
29,
28,
24,
32,
34,
26,
28,
24,
17,
21,
27,
15,
24,
27,
26,
19,
16,
13,
16,
14,
20,
22,
13,
11,
5,
11,
6,
10,
11,
7,
11,
9,
9,
5,
5,
2,
3,
1,
3,
2,
5,
3,
1,
2,
3,
1,
2,
0,
0,
0,
0,
0,
0,
0,
0,
0,
0,
0,
0,
0,
0,
0,
0,
0,
0,
0,
0,
0,
0,
0,
0,
0,
1,
0,
1,
0,
0,
0,
0,
0,
0,
0,
0,
0,
0,
0,
0,
0,
0,
0,
0,
0,
0,
0,
0,
0,
0,
0,
0,
0,
0,
0,
0,
0,
0,
0,
0,
0,
0,
0,
0,
0,
0,
0,
0,
0,
0,
0,
#ENDOFDATA   :